'Id: "" Comment: "" Operator: "Lab Manager" Anode: "Cu" Scantype: "Coupled TwoTheta/Theta" TimePerStep: "192" 
5.0000 6.823
5.0096 6.943
5.0192 6.755
5.0289 6.828
5.0385 6.938
5.0481 6.828
5.0577 6.469
5.0673 6.375
5.0769 6.552
5.0866 6.323
5.0962 6.844
5.1058 6.792
5.1154 6.599
5.1250 6.307
5.1346 6.151
5.1443 6.000
5.1539 6.500
5.1635 6.203
5.1731 6.411
5.1827 6.432
5.1923 6.146
5.2020 6.057
5.2116 6.073
5.2212 6.115
5.2308 5.932
5.2404 6.130
5.2500 6.130
5.2597 6.042
5.2693 6.375
5.2789 6.057
5.2885 6.281
5.2981 5.781
5.3077 5.849
5.3174 6.052
5.3270 6.094
5.3366 5.734
5.3462 5.979
5.3558 5.901
5.3654 5.813
5.3751 6.057
5.3847 6.073
5.3943 5.922
5.4039 6.036
5.4135 5.724
5.4231 5.802
5.4328 6.026
5.4424 5.948
5.4520 5.740
5.4616 6.146
5.4712 6.047
5.4808 5.677
5.4905 5.620
5.5001 5.484
5.5097 5.755
5.5193 6.010
5.5289 5.771
5.5386 5.818
5.5482 5.922
5.5578 5.682
5.5674 5.745
5.5770 5.635
5.5866 5.818
5.5963 5.583
5.6059 5.615
5.6155 5.672
5.6251 6.000
5.6347 5.552
5.6443 5.708
5.6540 5.573
5.6636 5.474
5.6732 5.896
5.6828 5.443
5.6924 5.599
5.7020 5.635
5.7117 5.953
5.7213 5.807
5.7309 5.266
5.7405 5.703
5.7501 5.443
5.7597 5.448
5.7694 5.568
5.7790 5.417
5.7886 5.844
5.7982 5.469
5.8078 5.714
5.8174 5.370
5.8271 5.667
5.8367 5.146
5.8463 5.573
5.8559 5.760
5.8655 5.188
5.8751 5.339
5.8848 5.359
5.8944 5.292
5.9040 5.302
5.9136 5.552
5.9232 5.135
5.9328 5.469
5.9425 5.521
5.9521 5.182
5.9617 5.323
5.9713 5.339
5.9809 5.641
5.9905 5.318
6.0002 5.260
6.0098 5.495
6.0194 5.302
6.0290 4.984
6.0386 5.276
6.0483 4.974
6.0579 4.891
6.0675 5.349
6.0771 5.057
6.0867 5.172
6.0963 5.177
6.1060 5.083
6.1156 5.193
6.1252 4.938
6.1348 5.083
6.1444 5.193
6.1540 5.104
6.1637 5.323
6.1733 5.198
6.1829 5.271
6.1925 5.193
6.2021 5.089
6.2117 5.266
6.2214 5.151
6.2310 5.406
6.2406 4.932
6.2502 5.250
6.2598 5.104
6.2694 5.349
6.2791 5.417
6.2887 5.958
6.2983 5.557
6.3079 5.161
6.3175 5.083
6.3271 5.036
6.3368 5.224
6.3464 5.083
6.3560 4.885
6.3656 4.844
6.3752 5.266
6.3848 5.068
6.3945 4.703
6.4041 4.776
6.4137 4.854
6.4233 4.568
6.4329 4.823
6.4425 4.839
6.4522 5.125
6.4618 4.792
6.4714 4.536
6.4810 4.906
6.4906 4.630
6.5003 4.667
6.5099 4.458
6.5195 4.849
6.5291 4.797
6.5387 4.667
6.5483 4.880
6.5580 4.563
6.5676 4.594
6.5772 4.578
6.5868 4.771
6.5964 4.448
6.6060 4.448
6.6157 4.854
6.6253 4.693
6.6349 4.583
6.6445 4.422
6.6541 4.438
6.6637 4.349
6.6734 4.349
6.6830 4.276
6.6926 4.333
6.7022 4.484
6.7118 4.438
6.7214 4.495
6.7311 4.198
6.7407 4.406
6.7503 4.214
6.7599 4.349
6.7695 4.469
6.7791 4.302
6.7888 4.521
6.7984 4.240
6.8080 4.229
6.8176 4.313
6.8272 4.458
6.8368 4.260
6.8465 4.219
6.8561 4.318
6.8657 4.125
6.8753 4.349
6.8849 4.010
6.8945 4.354
6.9042 4.135
6.9138 4.203
6.9234 4.245
6.9330 4.510
6.9426 4.214
6.9522 4.005
6.9619 4.130
6.9715 4.089
6.9811 4.094
6.9907 4.245
7.0003 4.385
7.0100 4.021
7.0196 4.234
7.0292 4.052
7.0388 4.125
7.0484 3.948
7.0580 3.943
7.0677 4.172
7.0773 3.854
7.0869 4.063
7.0965 4.318
7.1061 4.089
7.1157 4.036
7.1254 3.885
7.1350 4.005
7.1446 3.927
7.1542 4.057
7.1638 3.938
7.1734 3.896
7.1831 3.703
7.1927 4.068
7.2023 4.318
7.2119 3.698
7.2215 3.786
7.2311 3.922
7.2408 3.870
7.2504 3.797
7.2600 3.620
7.2696 3.875
7.2792 3.938
7.2888 3.901
7.2985 3.677
7.3081 4.078
7.3177 3.922
7.3273 3.865
7.3369 3.807
7.3465 3.651
7.3562 3.688
7.3658 4.016
7.3754 3.698
7.3850 3.688
7.3946 3.474
7.4042 3.719
7.4139 3.776
7.4235 3.797
7.4331 3.661
7.4427 3.661
7.4523 3.630
7.4619 3.750
7.4716 3.786
7.4812 3.625
7.4908 3.552
7.5004 3.583
7.5100 3.688
7.5197 3.635
7.5293 3.557
7.5389 3.682
7.5485 3.609
7.5581 3.656
7.5677 3.734
7.5774 3.427
7.5870 3.599
7.5966 3.760
7.6062 3.505
7.6158 3.776
7.6254 3.385
7.6351 3.620
7.6447 3.406
7.6543 3.719
7.6639 3.443
7.6735 3.354
7.6831 3.786
7.6928 3.646
7.7024 3.760
7.7120 3.443
7.7216 3.516
7.7312 3.536
7.7408 3.286
7.7505 3.198
7.7601 3.297
7.7697 3.443
7.7793 3.354
7.7889 3.307
7.7985 3.573
7.8082 3.281
7.8178 3.047
7.8274 3.354
7.8370 3.297
7.8466 3.469
7.8562 3.234
7.8659 3.333
7.8755 3.177
7.8851 3.380
7.8947 3.464
7.9043 3.260
7.9139 2.865
7.9236 3.026
7.9332 3.276
7.9428 3.219
7.9524 3.219
7.9620 3.198
7.9716 3.396
7.9813 3.198
7.9909 3.099
8.0005 3.172
8.0101 3.208
8.0197 3.240
8.0294 3.401
8.0390 3.307
8.0486 3.255
8.0582 3.099
8.0678 3.307
8.0774 3.260
8.0871 2.786
8.0967 3.188
8.1063 3.172
8.1159 3.068
8.1255 3.099
8.1351 3.125
8.1448 3.177
8.1544 2.854
8.1640 2.911
8.1736 3.047
8.1832 2.911
8.1928 2.875
8.2025 3.109
8.2121 2.990
8.2217 3.000
8.2313 2.938
8.2409 3.260
8.2505 2.771
8.2602 3.141
8.2698 2.932
8.2794 3.109
8.2890 2.844
8.2986 2.854
8.3082 2.880
8.3179 2.786
8.3275 2.813
8.3371 2.854
8.3467 2.948
8.3563 3.115
8.3659 2.911
8.3756 3.099
8.3852 3.005
8.3948 2.786
8.4044 2.703
8.4140 2.646
8.4236 2.802
8.4333 2.865
8.4429 2.823
8.4525 2.875
8.4621 3.016
8.4717 2.958
8.4813 2.833
8.4910 2.948
8.5006 2.906
8.5102 2.911
8.5198 2.891
8.5294 2.792
8.5391 3.042
8.5487 3.109
8.5583 2.948
8.5679 2.865
8.5775 2.807
8.5871 2.974
8.5968 2.917
8.6064 2.672
8.6160 2.635
8.6256 2.823
8.6352 2.630
8.6448 3.005
8.6545 2.807
8.6641 2.760
8.6737 2.828
8.6833 2.818
8.6929 2.661
8.7025 2.818
8.7122 2.833
8.7218 2.734
8.7314 3.016
8.7410 2.729
8.7506 2.974
8.7602 2.807
8.7699 2.714
8.7795 2.620
8.7891 2.943
8.7987 2.786
8.8083 2.995
8.8179 2.797
8.8276 2.651
8.8372 2.635
8.8468 3.005
8.8564 2.708
8.8660 2.521
8.8756 2.719
8.8853 3.083
8.8949 2.917
8.9045 2.698
8.9141 2.807
8.9237 2.839
8.9333 2.729
8.9430 2.807
8.9526 3.109
8.9622 2.771
8.9718 2.927
8.9814 2.719
8.9911 2.885
9.0007 2.938
9.0103 2.635
9.0199 2.682
9.0295 2.776
9.0391 2.880
9.0488 2.839
9.0584 2.891
9.0680 2.990
9.0776 3.031
9.0872 2.927
9.0968 3.115
9.1065 2.969
9.1161 3.094
9.1257 3.198
9.1353 3.063
9.1449 3.318
9.1545 3.240
9.1642 3.490
9.1738 3.536
9.1834 3.474
9.1930 3.401
9.2026 3.547
9.2122 3.760
9.2219 3.797
9.2315 3.807
9.2411 3.974
9.2507 4.260
9.2603 4.411
9.2699 4.406
9.2796 4.620
9.2892 4.578
9.2988 4.865
9.3084 5.057
9.3180 5.156
9.3276 5.208
9.3373 5.563
9.3469 5.906
9.3565 6.135
9.3661 6.745
9.3757 6.807
9.3853 7.016
9.3950 7.297
9.4046 7.552
9.4142 8.042
9.4238 8.526
9.4334 8.714
9.4430 8.880
9.4527 9.630
9.4623 10.188
9.4719 10.443
9.4815 11.193
9.4911 10.854
9.5008 10.854
9.5104 11.896
9.5200 11.917
9.5296 12.083
9.5392 12.729
9.5488 13.370
9.5585 13.880
9.5681 13.865
9.5777 13.953
9.5873 14.370
9.5969 14.281
9.6065 14.042
9.6162 13.708
9.6258 12.724
9.6354 12.266
9.6450 10.786
9.6546 10.198
9.6642 9.521
9.6739 8.703
9.6835 7.552
9.6931 7.125
9.7027 6.667
9.7123 6.438
9.7219 5.974
9.7316 5.271
9.7412 5.141
9.7508 4.995
9.7604 4.693
9.7700 4.109
9.7796 4.359
9.7893 4.047
9.7989 3.927
9.8085 3.589
9.8181 3.563
9.8277 3.359
9.8373 3.229
9.8470 3.333
9.8566 3.130
9.8662 2.745
9.8758 2.969
9.8854 2.807
9.8950 2.729
9.9047 2.766
9.9143 2.505
9.9239 2.771
9.9335 2.630
9.9431 2.391
9.9527 2.474
9.9624 2.745
9.9720 2.411
9.9816 2.411
9.9912 2.521
10.0008 2.224
10.0105 2.411
10.0201 2.375
10.0297 2.255
10.0393 2.292
10.0489 2.156
10.0585 2.339
10.0682 2.073
10.0778 2.141
10.0874 2.057
10.0970 2.115
10.1066 2.005
10.1162 2.005
10.1259 2.240
10.1355 2.104
10.1451 2.115
10.1547 1.927
10.1643 2.094
10.1739 2.240
10.1836 1.948
10.1932 1.870
10.2028 1.917
10.2124 2.068
10.2220 1.927
10.2316 1.776
10.2413 1.729
10.2509 1.917
10.2605 1.823
10.2701 1.911
10.2797 1.802
10.2893 1.833
10.2990 2.234
10.3086 1.813
10.3182 1.885
10.3278 1.714
10.3374 2.052
10.3470 1.776
10.3567 1.776
10.3663 1.781
10.3759 1.786
10.3855 1.760
10.3951 1.667
10.4047 1.792
10.4144 1.635
10.4240 1.802
10.4336 1.635
10.4432 1.703
10.4528 1.693
10.4624 1.625
10.4721 1.594
10.4817 1.734
10.4913 1.714
10.5009 1.646
10.5105 1.661
10.5202 1.766
10.5298 1.672
10.5394 1.854
10.5490 1.682
10.5586 1.870
10.5682 1.786
10.5779 1.651
10.5875 1.708
10.5971 1.469
10.6067 1.479
10.6163 1.661
10.6259 1.729
10.6356 1.708
10.6452 1.604
10.6548 1.578
10.6644 1.682
10.6740 1.630
10.6836 1.698
10.6933 1.635
10.7029 1.568
10.7125 1.563
10.7221 1.563
10.7317 1.583
10.7413 1.552
10.7510 1.594
10.7606 1.542
10.7702 1.615
10.7798 1.698
10.7894 1.609
10.7990 1.516
10.8087 1.615
10.8183 1.750
10.8279 1.641
10.8375 1.583
10.8471 1.641
10.8567 1.656
10.8664 1.594
10.8760 1.490
10.8856 1.734
10.8952 1.536
10.9048 1.568
10.9144 1.448
10.9241 1.495
10.9337 1.438
10.9433 1.526
10.9529 1.500
10.9625 1.578
10.9721 1.667
10.9818 1.661
10.9914 1.516
11.0010 1.661
11.0106 1.359
11.0202 1.568
11.0299 1.656
11.0395 1.547
11.0491 1.604
11.0587 1.542
11.0683 1.568
11.0779 1.719
11.0876 1.625
11.0972 1.625
11.1068 1.479
11.1164 1.443
11.1260 1.609
11.1356 1.651
11.1453 1.568
11.1549 1.594
11.1645 1.563
11.1741 1.479
11.1837 1.526
11.1933 1.552
11.2030 1.531
11.2126 1.464
11.2222 1.510
11.2318 1.547
11.2414 1.453
11.2510 1.521
11.2607 1.526
11.2703 1.417
11.2799 1.500
11.2895 1.630
11.2991 1.458
11.3087 1.448
11.3184 1.411
11.3280 1.510
11.3376 1.563
11.3472 1.484
11.3568 1.526
11.3664 1.365
11.3761 1.422
11.3857 1.474
11.3953 1.484
11.4049 1.453
11.4145 1.500
11.4241 1.479
11.4338 1.542
11.4434 1.464
11.4530 1.385
11.4626 1.458
11.4722 1.359
11.4819 1.375
11.4915 1.427
11.5011 1.354
11.5107 1.516
11.5203 1.422
11.5299 1.594
11.5396 1.474
11.5492 1.292
11.5588 1.495
11.5684 1.297
11.5780 1.385
11.5876 1.448
11.5973 1.375
11.6069 1.505
11.6165 1.281
11.6261 1.438
11.6357 1.266
11.6453 1.375
11.6550 1.438
11.6646 1.464
11.6742 1.609
11.6838 1.417
11.6934 1.396
11.7030 1.406
11.7127 1.448
11.7223 1.375
11.7319 1.266
11.7415 1.370
11.7511 1.422
11.7607 1.432
11.7704 1.297
11.7800 1.313
11.7896 1.563
11.7992 1.391
11.8088 1.297
11.8184 1.354
11.8281 1.177
11.8377 1.417
11.8473 1.266
11.8569 1.589
11.8665 1.385
11.8761 1.339
11.8858 1.266
11.8954 1.406
11.9050 1.344
11.9146 1.328
11.9242 1.427
11.9338 1.349
11.9435 1.469
11.9531 1.313
11.9627 1.307
11.9723 1.313
11.9819 1.260
11.9916 1.271
12.0012 1.208
12.0108 1.281
12.0204 1.375
12.0300 1.339
12.0396 1.359
12.0493 1.380
12.0589 1.380
12.0685 1.370
12.0781 1.281
12.0877 1.172
12.0973 1.234
12.1070 1.344
12.1166 1.417
12.1262 1.208
12.1358 1.229
12.1454 1.266
12.1550 1.271
12.1647 1.297
12.1743 1.411
12.1839 1.234
12.1935 1.307
12.2031 1.380
12.2127 1.255
12.2224 1.260
12.2320 1.401
12.2416 1.198
12.2512 1.432
12.2608 1.271
12.2704 1.375
12.2801 1.089
12.2897 1.219
12.2993 1.245
12.3089 1.177
12.3185 1.156
12.3281 1.167
12.3378 1.417
12.3474 1.417
12.3570 1.328
12.3666 1.245
12.3762 1.276
12.3858 1.307
12.3955 1.365
12.4051 1.255
12.4147 1.286
12.4243 1.219
12.4339 1.234
12.4435 1.203
12.4532 1.255
12.4628 1.359
12.4724 1.417
12.4820 1.219
12.4916 1.229
12.5013 1.313
12.5109 1.281
12.5205 1.188
12.5301 1.344
12.5397 1.167
12.5493 1.302
12.5590 1.339
12.5686 1.234
12.5782 1.109
12.5878 1.208
12.5974 1.286
12.6070 1.146
12.6167 1.161
12.6263 1.198
12.6359 1.229
12.6455 1.115
12.6551 1.193
12.6647 1.297
12.6744 1.208
12.6840 1.297
12.6936 1.354
12.7032 1.193
12.7128 1.260
12.7224 1.375
12.7321 1.344
12.7417 1.302
12.7513 1.219
12.7609 1.292
12.7705 1.266
12.7801 1.188
12.7898 1.135
12.7994 1.219
12.8090 1.151
12.8186 1.188
12.8282 1.240
12.8378 1.167
12.8475 1.271
12.8571 1.240
12.8667 1.161
12.8763 1.401
12.8859 1.073
12.8955 1.240
12.9052 1.250
12.9148 1.297
12.9244 1.349
12.9340 1.240
12.9436 1.333
12.9532 1.271
12.9629 1.198
12.9725 1.302
12.9821 1.411
12.9917 1.109
13.0013 1.208
13.0110 1.141
13.0206 1.276
13.0302 1.151
13.0398 1.307
13.0494 1.411
13.0590 1.250
13.0687 1.323
13.0783 1.276
13.0879 1.328
13.0975 1.260
13.1071 1.281
13.1167 1.229
13.1264 1.307
13.1360 1.297
13.1456 1.219
13.1552 1.474
13.1648 1.464
13.1744 1.328
13.1841 1.401
13.1937 1.370
13.2033 1.474
13.2129 1.516
13.2225 1.495
13.2321 1.427
13.2418 1.490
13.2514 1.453
13.2610 1.359
13.2706 1.438
13.2802 1.391
13.2898 1.438
13.2995 1.516
13.3091 1.307
13.3187 1.453
13.3283 1.443
13.3379 1.495
13.3475 1.495
13.3572 1.563
13.3668 1.729
13.3764 1.776
13.3860 1.781
13.3956 1.813
13.4052 1.750
13.4149 1.922
13.4245 1.776
13.4341 1.813
13.4437 1.896
13.4533 1.906
13.4630 1.891
13.4726 1.990
13.4822 2.328
13.4918 2.266
13.5014 2.411
13.5110 2.255
13.5207 2.219
13.5303 2.411
13.5399 2.474
13.5495 2.516
13.5591 2.672
13.5687 2.948
13.5784 3.099
13.5880 3.031
13.5976 3.161
13.6072 3.177
13.6168 3.510
13.6264 3.526
13.6361 4.198
13.6457 4.109
13.6553 4.427
13.6649 4.714
13.6745 5.083
13.6841 5.255
13.6938 5.786
13.7034 5.911
13.7130 6.333
13.7226 6.651
13.7322 7.083
13.7418 7.484
13.7515 7.781
13.7611 8.469
13.7707 9.281
13.7803 8.979
13.7899 8.500
13.7995 8.724
13.8092 8.224
13.8188 7.464
13.8284 6.948
13.8380 5.938
13.8476 5.453
13.8572 5.432
13.8669 4.755
13.8765 4.542
13.8861 4.219
13.8957 4.094
13.9053 3.724
13.9149 3.495
13.9246 3.458
13.9342 3.281
13.9438 2.938
13.9534 3.099
13.9630 2.755
13.9727 2.557
13.9823 2.443
13.9919 2.422
14.0015 2.417
14.0111 2.323
14.0207 2.182
14.0304 2.438
14.0400 2.146
14.0496 2.219
14.0592 2.089
14.0688 1.849
14.0784 2.073
14.0881 1.781
14.0977 1.943
14.1073 1.823
14.1169 1.734
14.1265 1.813
14.1361 1.661
14.1458 1.729
14.1554 1.536
14.1650 1.797
14.1746 1.776
14.1842 1.458
14.1938 1.500
14.2035 1.755
14.2131 1.505
14.2227 1.594
14.2323 1.469
14.2419 1.521
14.2515 1.417
14.2612 1.568
14.2708 1.458
14.2804 1.536
14.2900 1.469
14.2996 1.432
14.3092 1.453
14.3189 1.380
14.3285 1.365
14.3381 1.250
14.3477 1.370
14.3573 1.260
14.3669 1.276
14.3766 1.458
14.3862 1.339
14.3958 1.240
14.4054 1.380
14.4150 1.260
14.4246 1.411
14.4343 1.448
14.4439 1.411
14.4535 1.297
14.4631 1.333
14.4727 1.286
14.4824 1.255
14.4920 1.359
14.5016 1.292
14.5112 1.391
14.5208 1.385
14.5304 1.286
14.5401 1.313
14.5497 1.365
14.5593 1.313
14.5689 1.375
14.5785 1.396
14.5881 1.453
14.5978 1.359
14.6074 1.365
14.6170 1.286
14.6266 1.479
14.6362 1.469
14.6458 1.250
14.6555 1.370
14.6651 1.344
14.6747 1.307
14.6843 1.380
14.6939 1.229
14.7035 1.359
14.7132 1.406
14.7228 1.391
14.7324 1.510
14.7420 1.599
14.7516 1.479
14.7612 1.563
14.7709 1.708
14.7805 1.589
14.7901 1.641
14.7997 1.693
14.8093 1.552
14.8189 1.698
14.8286 1.646
14.8382 1.771
14.8478 1.797
14.8574 1.750
14.8670 1.823
14.8766 2.010
14.8863 1.948
14.8959 1.854
14.9055 2.146
14.9151 2.276
14.9247 2.078
14.9343 2.219
14.9440 2.365
14.9536 2.479
14.9632 2.698
14.9728 2.474
14.9824 2.828
14.9921 2.932
15.0017 3.073
15.0113 3.229
15.0209 3.411
15.0305 3.932
15.0401 4.130
15.0498 4.354
15.0594 4.651
15.0690 4.953
15.0786 5.688
15.0882 5.818
15.0978 6.318
15.1075 6.964
15.1171 7.651
15.1267 8.432
15.1363 8.932
15.1459 9.552
15.1555 10.781
15.1652 11.724
15.1748 12.568
15.1844 13.755
15.1940 14.802
15.2036 16.135
15.2132 16.953
15.2229 18.349
15.2325 18.703
15.2421 18.010
15.2517 18.469
15.2613 17.141
15.2709 16.703
15.2806 15.260
15.2902 13.531
15.2998 11.839
15.3094 10.927
15.3190 9.688
15.3286 8.594
15.3383 7.333
15.3479 7.255
15.3575 6.036
15.3671 5.708
15.3767 4.964
15.3863 4.734
15.3960 4.490
15.4056 3.964
15.4152 3.938
15.4248 3.224
15.4344 3.365
15.4440 3.307
15.4537 3.016
15.4633 2.609
15.4729 2.776
15.4825 2.672
15.4921 2.344
15.5018 2.323
15.5114 2.146
15.5210 2.026
15.5306 1.953
15.5402 2.208
15.5498 1.948
15.5595 1.974
15.5691 1.734
15.5787 1.818
15.5883 1.615
15.5979 1.479
15.6075 1.760
15.6172 1.469
15.6268 1.656
15.6364 1.542
15.6460 1.458
15.6556 1.573
15.6652 1.500
15.6749 1.557
15.6845 1.417
15.6941 1.391
15.7037 1.250
15.7133 1.422
15.7229 1.385
15.7326 1.375
15.7422 1.240
15.7518 1.151
15.7614 1.359
15.7710 1.302
15.7806 1.224
15.7903 1.193
15.7999 1.281
15.8095 1.260
15.8191 1.260
15.8287 1.323
15.8383 1.344
15.8480 1.271
15.8576 1.318
15.8672 1.349
15.8768 1.229
15.8864 1.115
15.8960 1.333
15.9057 1.099
15.9153 1.297
15.9249 1.172
15.9345 1.276
15.9441 1.245
15.9538 1.307
15.9634 1.099
15.9730 1.188
15.9826 1.146
15.9922 1.224
16.0018 1.052
16.0115 1.005
16.0211 1.063
16.0307 1.120
16.0403 1.068
16.0499 1.156
16.0595 1.000
16.0692 0.922
16.0788 0.875
16.0884 1.167
16.0980 1.078
16.1076 1.052
16.1172 1.130
16.1269 1.198
16.1365 1.094
16.1461 0.922
16.1557 1.177
16.1653 1.141
16.1749 0.984
16.1846 1.057
16.1942 1.125
16.2038 1.068
16.2134 1.042
16.2230 0.979
16.2326 1.010
16.2423 1.073
16.2519 0.979
16.2615 1.146
16.2711 0.995
16.2807 1.000
16.2903 0.958
16.3000 1.068
16.3096 0.995
16.3192 1.078
16.3288 0.948
16.3384 1.068
16.3480 1.016
16.3577 0.953
16.3673 1.068
16.3769 0.917
16.3865 1.016
16.3961 0.917
16.4057 1.031
16.4154 0.958
16.4250 0.896
16.4346 1.005
16.4442 1.042
16.4538 0.880
16.4635 1.036
16.4731 0.932
16.4827 0.927
16.4923 1.010
16.5019 0.958
16.5115 1.073
16.5212 0.974
16.5308 0.927
16.5404 0.932
16.5500 0.964
16.5596 1.016
16.5692 0.865
16.5789 0.849
16.5885 1.042
16.5981 1.000
16.6077 0.948
16.6173 0.995
16.6269 0.880
16.6366 0.911
16.6462 1.057
16.6558 0.875
16.6654 0.901
16.6750 0.906
16.6846 0.906
16.6943 0.964
16.7039 0.943
16.7135 1.031
16.7231 1.057
16.7327 0.990
16.7423 0.901
16.7520 1.068
16.7616 0.995
16.7712 1.000
16.7808 0.844
16.7904 1.005
16.8000 0.932
16.8097 0.969
16.8193 0.875
16.8289 0.880
16.8385 0.964
16.8481 0.875
16.8577 0.849
16.8674 0.969
16.8770 1.042
16.8866 0.896
16.8962 0.891
16.9058 0.932
16.9154 0.771
16.9251 0.943
16.9347 0.901
16.9443 0.870
16.9539 0.901
16.9635 0.906
16.9732 0.839
16.9828 1.016
16.9924 0.896
17.0020 0.854
17.0116 0.870
17.0212 0.875
17.0309 0.932
17.0405 0.781
17.0501 0.906
17.0597 0.839
17.0693 0.932
17.0789 0.813
17.0886 0.818
17.0982 0.906
17.1078 1.005
17.1174 1.026
17.1270 0.771
17.1366 0.943
17.1463 0.896
17.1559 0.906
17.1655 0.964
17.1751 0.786
17.1847 0.896
17.1943 0.906
17.2040 0.885
17.2136 0.807
17.2232 0.833
17.2328 0.844
17.2424 0.911
17.2520 0.849
17.2617 0.828
17.2713 0.901
17.2809 0.839
17.2905 0.896
17.3001 0.990
17.3097 0.797
17.3194 1.036
17.3290 0.901
17.3386 0.943
17.3482 0.901
17.3578 0.880
17.3674 0.865
17.3771 0.828
17.3867 0.818
17.3963 0.880
17.4059 0.891
17.4155 0.974
17.4251 0.844
17.4348 0.849
17.4444 0.771
17.4540 0.854
17.4636 0.917
17.4732 0.813
17.4829 0.891
17.4925 0.891
17.5021 0.745
17.5117 0.844
17.5213 0.823
17.5309 0.854
17.5406 0.948
17.5502 0.839
17.5598 0.849
17.5694 0.854
17.5790 0.802
17.5886 0.797
17.5983 0.760
17.6079 0.859
17.6175 0.844
17.6271 0.646
17.6367 0.755
17.6463 1.010
17.6560 0.766
17.6656 0.797
17.6752 0.792
17.6848 1.016
17.6944 0.854
17.7040 0.891
17.7137 0.797
17.7233 0.740
17.7329 0.802
17.7425 0.906
17.7521 0.802
17.7617 0.766
17.7714 0.870
17.7810 0.802
17.7906 0.792
17.8002 0.802
17.8098 0.771
17.8194 1.010
17.8291 0.776
17.8387 0.745
17.8483 0.750
17.8579 0.906
17.8675 0.818
17.8771 0.854
17.8868 0.740
17.8964 0.786
17.9060 0.714
17.9156 0.776
17.9252 0.880
17.9348 0.844
17.9445 0.760
17.9541 0.766
17.9637 0.969
17.9733 0.839
17.9829 0.766
17.9926 0.755
18.0022 0.849
18.0118 0.781
18.0214 0.870
18.0310 0.719
18.0406 0.781
18.0503 0.813
