'Id: "" Comment: "" Operator: "Lab Manager" Anode: "Cu" Scantype: "Coupled TwoTheta/Theta" TimePerStep: "192" 
5.0000 7.891
5.0096 7.344
5.0192 7.375
5.0289 7.750
5.0385 7.771
5.0481 7.479
5.0577 6.958
5.0673 7.188
5.0769 7.021
5.0866 7.000
5.0962 7.214
5.1058 7.042
5.1154 7.099
5.1250 6.927
5.1346 7.021
5.1443 6.807
5.1539 6.990
5.1635 6.932
5.1731 6.958
5.1827 6.849
5.1923 7.016
5.2020 6.802
5.2116 6.813
5.2212 6.974
5.2308 6.536
5.2404 6.714
5.2500 6.573
5.2597 6.792
5.2693 6.479
5.2789 6.495
5.2885 6.854
5.2981 6.708
5.3077 6.516
5.3174 6.750
5.3270 6.130
5.3366 6.990
5.3462 6.641
5.3558 6.651
5.3654 6.589
5.3751 6.411
5.3847 6.500
5.3943 6.563
5.4039 6.255
5.4135 6.151
5.4231 6.313
5.4328 6.484
5.4424 6.026
5.4520 6.484
5.4616 6.490
5.4712 6.911
5.4808 6.214
5.4905 6.245
5.5001 6.094
5.5097 6.172
5.5193 6.188
5.5289 6.318
5.5386 6.453
5.5482 5.927
5.5578 6.073
5.5674 6.318
5.5770 6.078
5.5866 6.000
5.5963 5.995
5.6059 6.219
5.6155 6.115
5.6251 5.948
5.6347 6.307
5.6443 6.094
5.6540 5.760
5.6636 5.969
5.6732 6.094
5.6828 6.240
5.6924 5.464
5.7020 5.875
5.7117 5.885
5.7213 6.063
5.7309 5.844
5.7405 6.094
5.7501 5.781
5.7597 6.016
5.7694 5.901
5.7790 6.422
5.7886 5.865
5.7982 6.047
5.8078 5.974
5.8174 5.693
5.8271 6.036
5.8367 5.698
5.8463 5.839
5.8559 5.984
5.8655 5.740
5.8751 5.786
5.8848 5.839
5.8944 5.458
5.9040 5.646
5.9136 5.802
5.9232 5.568
5.9328 5.370
5.9425 5.750
5.9521 5.552
5.9617 5.693
5.9713 5.807
5.9809 5.396
5.9905 5.536
6.0002 5.526
6.0098 5.453
6.0194 5.667
6.0290 5.526
6.0386 5.552
6.0483 5.391
6.0579 5.161
6.0675 5.500
6.0771 5.818
6.0867 5.271
6.0963 5.536
6.1060 5.313
6.1156 5.661
6.1252 5.500
6.1348 5.135
6.1444 5.198
6.1540 5.526
6.1637 5.557
6.1733 5.438
6.1829 5.323
6.1925 5.354
6.2021 5.542
6.2117 5.385
6.2214 5.234
6.2310 5.484
6.2406 5.286
6.2502 5.620
6.2598 5.276
6.2694 5.365
6.2791 5.427
6.2887 5.245
6.2983 5.313
6.3079 5.125
6.3175 5.302
6.3271 5.328
6.3368 4.990
6.3464 5.135
6.3560 4.922
6.3656 5.266
6.3752 5.068
6.3848 5.021
6.3945 5.094
6.4041 5.354
6.4137 5.099
6.4233 5.333
6.4329 4.943
6.4425 4.964
6.4522 5.104
6.4618 4.953
6.4714 4.984
6.4810 4.969
6.4906 5.099
6.5003 4.859
6.5099 4.823
6.5195 5.042
6.5291 4.849
6.5387 4.990
6.5483 4.776
6.5580 4.932
6.5676 4.609
6.5772 4.797
6.5868 4.964
6.5964 4.906
6.6060 4.479
6.6157 4.766
6.6253 4.760
6.6349 4.688
6.6445 4.828
6.6541 4.448
6.6637 4.688
6.6734 4.292
6.6830 4.724
6.6926 4.625
6.7022 4.510
6.7118 4.682
6.7214 4.714
6.7311 4.260
6.7407 4.578
6.7503 4.677
6.7599 4.792
6.7695 4.510
6.7791 4.557
6.7888 4.589
6.7984 4.620
6.8080 4.427
6.8176 4.458
6.8272 4.422
6.8368 4.375
6.8465 4.307
6.8561 4.339
6.8657 4.521
6.8753 4.417
6.8849 4.500
6.8945 4.313
6.9042 4.510
6.9138 4.156
6.9234 4.359
6.9330 4.557
6.9426 4.417
6.9522 4.396
6.9619 4.422
6.9715 4.391
6.9811 4.109
6.9907 4.474
7.0003 4.276
7.0100 4.276
7.0196 4.036
7.0292 4.208
7.0388 4.292
7.0484 4.406
7.0580 4.443
7.0677 3.948
7.0773 4.516
7.0869 4.281
7.0965 4.135
7.1061 4.229
7.1157 3.974
7.1254 3.974
7.1350 4.328
7.1446 4.234
7.1542 4.094
7.1638 4.094
7.1734 3.969
7.1831 4.328
7.1927 3.875
7.2023 4.021
7.2119 3.927
7.2215 4.359
7.2311 4.104
7.2408 4.115
7.2504 4.089
7.2600 3.859
7.2696 3.813
7.2792 4.010
7.2888 3.990
7.2985 4.089
7.3081 3.661
7.3177 3.859
7.3273 3.885
7.3369 4.167
7.3465 3.984
7.3562 3.953
7.3658 4.042
7.3754 3.995
7.3850 3.927
7.3946 3.849
7.4042 3.661
7.4139 3.927
7.4235 3.979
7.4331 3.948
7.4427 3.885
7.4523 3.948
7.4619 4.177
7.4716 3.484
7.4812 3.979
7.4908 3.604
7.5004 3.552
7.5100 3.682
7.5197 3.578
7.5293 3.781
7.5389 3.714
7.5485 3.703
7.5581 3.740
7.5677 3.641
7.5774 3.833
7.5870 3.693
7.5966 3.635
7.6062 3.677
7.6158 3.469
7.6254 3.719
7.6351 3.667
7.6447 3.620
7.6543 3.630
7.6639 3.380
7.6735 3.510
7.6831 3.792
7.6928 3.573
7.7024 3.427
7.7120 3.594
7.7216 3.495
7.7312 3.547
7.7408 3.740
7.7505 3.620
7.7601 3.276
7.7697 3.318
7.7793 3.427
7.7889 3.313
7.7985 3.453
7.8082 3.339
7.8178 3.464
7.8274 3.552
7.8370 3.484
7.8466 3.474
7.8562 3.349
7.8659 3.359
7.8755 3.526
7.8851 3.422
7.8947 3.354
7.9043 3.391
7.9139 3.182
7.9236 3.344
7.9332 3.344
7.9428 3.182
7.9524 3.391
7.9620 3.417
7.9716 3.234
7.9813 3.234
7.9909 3.188
8.0005 3.521
8.0101 3.313
8.0197 3.177
8.0294 3.333
8.0390 3.234
8.0486 3.203
8.0582 3.141
8.0678 3.255
8.0774 3.297
8.0871 3.339
8.0967 3.146
8.1063 3.234
8.1159 3.214
8.1255 3.083
8.1351 2.901
8.1448 3.000
8.1544 3.292
8.1640 3.089
8.1736 2.990
8.1832 3.313
8.1928 3.010
8.2025 3.250
8.2121 3.052
8.2217 3.031
8.2313 2.875
8.2409 2.948
8.2505 3.042
8.2602 2.948
8.2698 3.094
8.2794 2.943
8.2890 2.990
8.2986 3.120
8.3082 2.953
8.3179 2.865
8.3275 2.875
8.3371 2.693
8.3467 2.948
8.3563 2.953
8.3659 2.818
8.3756 2.911
8.3852 2.750
8.3948 2.807
8.4044 3.141
8.4140 2.906
8.4236 3.005
8.4333 2.849
8.4429 2.797
8.4525 3.125
8.4621 2.688
8.4717 2.688
8.4813 2.938
8.4910 2.745
8.5006 2.656
8.5102 2.656
8.5198 2.802
8.5294 2.724
8.5391 2.594
8.5487 2.656
8.5583 2.906
8.5679 2.828
8.5775 2.948
8.5871 2.359
8.5968 2.865
8.6064 2.656
8.6160 2.813
8.6256 2.583
8.6352 2.547
8.6448 2.953
8.6545 2.740
8.6641 2.542
8.6737 2.615
8.6833 2.807
8.6929 2.500
8.7025 2.917
8.7122 2.589
8.7218 2.729
8.7314 2.625
8.7410 2.885
8.7506 2.771
8.7602 2.984
8.7699 3.490
8.7795 3.708
8.7891 3.240
8.7987 3.234
8.8083 3.021
8.8179 2.917
8.8276 2.677
8.8372 2.589
8.8468 2.661
8.8564 2.589
8.8660 2.667
8.8756 2.594
8.8853 2.589
8.8949 2.531
8.9045 2.484
8.9141 2.417
8.9237 2.547
8.9333 2.495
8.9430 2.526
8.9526 2.443
8.9622 2.599
8.9718 2.724
8.9814 2.438
8.9911 2.339
9.0007 2.307
9.0103 2.469
9.0199 2.286
9.0295 2.448
9.0391 2.396
9.0488 2.349
9.0584 2.453
9.0680 2.453
9.0776 2.375
9.0872 2.188
9.0968 2.484
9.1065 2.354
9.1161 2.344
9.1257 2.479
9.1353 2.406
9.1449 2.188
9.1545 2.281
9.1642 2.375
9.1738 2.333
9.1834 2.271
9.1930 2.307
9.2026 2.188
9.2122 2.365
9.2219 2.333
9.2315 2.010
9.2411 2.365
9.2507 2.250
9.2603 2.563
9.2699 2.411
9.2796 2.229
9.2892 2.370
9.2988 2.484
9.3084 2.281
9.3180 2.323
9.3276 2.542
9.3373 2.318
9.3469 2.469
9.3565 2.349
9.3661 2.260
9.3757 2.406
9.3853 2.208
9.3950 2.740
9.4046 2.589
9.4142 2.818
9.4238 2.943
9.4334 2.943
9.4430 3.365
9.4527 3.453
9.4623 3.641
9.4719 3.521
9.4815 3.406
9.4911 2.818
9.5008 2.464
9.5104 2.422
9.5200 2.375
9.5296 2.047
9.5392 1.979
9.5488 2.120
9.5585 2.104
9.5681 1.948
9.5777 2.234
9.5873 2.151
9.5969 2.016
9.6065 1.911
9.6162 2.016
9.6258 1.885
9.6354 2.047
9.6450 2.021
9.6546 2.042
9.6642 1.938
9.6739 1.865
9.6835 1.818
9.6931 1.974
9.7027 1.755
9.7123 1.875
9.7219 1.953
9.7316 1.719
9.7412 1.990
9.7508 2.047
9.7604 1.927
9.7700 1.958
9.7796 1.865
9.7893 1.807
9.7989 1.943
9.8085 1.792
9.8181 2.036
9.8277 2.057
9.8373 1.609
9.8470 1.865
9.8566 1.661
9.8662 1.677
9.8758 2.010
9.8854 1.745
9.8950 1.781
9.9047 1.870
9.9143 1.802
9.9239 1.813
9.9335 1.724
9.9431 1.625
9.9527 1.708
9.9624 1.849
9.9720 1.688
9.9816 1.813
9.9912 1.776
10.0008 1.755
10.0105 1.724
10.0201 1.542
10.0297 1.833
10.0393 1.635
10.0489 1.651
10.0585 1.646
10.0682 1.776
10.0778 1.781
10.0874 1.771
10.0970 1.714
10.1066 1.776
10.1162 1.766
10.1259 1.734
10.1355 1.740
10.1451 1.896
10.1547 1.661
10.1643 1.766
10.1739 1.828
10.1836 1.693
10.1932 1.667
10.2028 1.547
10.2124 1.724
10.2220 1.630
10.2316 1.568
10.2413 1.672
10.2509 1.797
10.2605 1.661
10.2701 1.557
10.2797 1.609
10.2893 1.609
10.2990 1.599
10.3086 1.620
10.3182 1.620
10.3278 1.609
10.3374 1.656
10.3470 1.635
10.3567 1.880
10.3663 1.760
10.3759 1.531
10.3855 1.740
10.3951 1.672
10.4047 1.672
10.4144 1.745
10.4240 1.469
10.4336 1.599
10.4432 1.698
10.4528 1.698
10.4624 1.698
10.4721 1.776
10.4817 1.688
10.4913 1.490
10.5009 1.557
10.5105 1.599
10.5202 1.703
10.5298 1.578
10.5394 1.703
10.5490 1.391
10.5586 1.401
10.5682 1.583
10.5779 1.552
10.5875 1.688
10.5971 1.484
10.6067 1.484
10.6163 1.578
10.6259 1.583
10.6356 1.521
10.6452 1.693
10.6548 1.542
10.6644 1.573
10.6740 1.688
10.6836 1.563
10.6933 1.661
10.7029 1.578
10.7125 1.583
10.7221 1.526
10.7317 1.625
10.7413 1.708
10.7510 1.443
10.7606 1.604
10.7702 1.589
10.7798 1.563
10.7894 1.391
10.7990 1.500
10.8087 1.578
10.8183 1.708
10.8279 1.542
10.8375 1.526
10.8471 1.542
10.8567 1.594
10.8664 1.453
10.8760 1.328
10.8856 1.620
10.8952 1.615
10.9048 1.427
10.9144 1.370
10.9241 1.474
10.9337 1.510
10.9433 1.573
10.9529 1.464
10.9625 1.453
10.9721 1.563
10.9818 1.490
10.9914 1.599
11.0010 1.474
11.0106 1.495
11.0202 1.417
11.0299 1.276
11.0395 1.344
11.0491 1.432
11.0587 1.594
11.0683 1.443
11.0779 1.625
11.0876 1.479
11.0972 1.490
11.1068 1.484
11.1164 1.615
11.1260 1.401
11.1356 1.510
11.1453 1.365
11.1549 1.516
11.1645 1.302
11.1741 1.495
11.1837 1.646
11.1933 1.516
11.2030 1.396
11.2126 1.458
11.2222 1.359
11.2318 1.542
11.2414 1.417
11.2510 1.354
11.2607 1.302
11.2703 1.417
11.2799 1.354
11.2895 1.385
11.2991 1.453
11.3087 1.438
11.3184 1.526
11.3280 1.344
11.3376 1.521
11.3472 1.490
11.3568 1.385
11.3664 1.396
11.3761 1.260
11.3857 1.411
11.3953 1.411
11.4049 1.479
11.4145 1.526
11.4241 1.385
11.4338 1.458
11.4434 1.641
11.4530 1.255
11.4626 1.432
11.4722 1.521
11.4819 1.193
11.4915 1.417
11.5011 1.250
11.5107 1.490
11.5203 1.307
11.5299 1.432
11.5396 1.453
11.5492 1.250
11.5588 1.500
11.5684 1.385
11.5780 1.406
11.5876 1.339
11.5973 1.281
11.6069 1.401
11.6165 1.271
11.6261 1.281
11.6357 1.411
11.6453 1.250
11.6550 1.396
11.6646 1.427
11.6742 1.438
11.6838 1.479
11.6934 1.292
11.7030 1.313
11.7127 1.422
11.7223 1.344
11.7319 1.375
11.7415 1.427
11.7511 1.307
11.7607 1.411
11.7704 1.333
11.7800 1.422
11.7896 1.359
11.7992 1.344
11.8088 1.349
11.8184 1.370
11.8281 1.401
11.8377 1.401
11.8473 1.380
11.8569 1.297
11.8665 1.245
11.8761 1.328
11.8858 1.375
11.8954 1.307
11.9050 1.286
11.9146 1.474
11.9242 1.276
11.9338 1.344
11.9435 1.234
11.9531 1.396
11.9627 1.281
11.9723 1.203
11.9819 1.339
11.9916 1.255
12.0012 1.260
12.0108 1.156
12.0204 1.177
12.0300 1.313
12.0396 1.318
12.0493 1.297
12.0589 1.182
12.0685 1.349
12.0781 1.328
12.0877 1.385
12.0973 1.333
12.1070 1.266
12.1166 1.391
12.1262 1.245
12.1358 1.182
12.1454 1.313
12.1550 1.266
12.1647 1.240
12.1743 1.234
12.1839 1.182
12.1935 1.130
12.2031 1.161
12.2127 1.297
12.2224 1.328
12.2320 1.266
12.2416 1.365
12.2512 1.495
12.2608 1.266
12.2704 1.229
12.2801 1.391
12.2897 1.286
12.2993 1.375
12.3089 1.255
12.3185 1.292
12.3281 1.354
12.3378 1.229
12.3474 1.344
12.3570 1.281
12.3666 1.245
12.3762 1.302
12.3858 1.323
12.3955 1.333
12.4051 1.286
12.4147 1.151
12.4243 1.365
12.4339 1.286
12.4435 1.292
12.4532 1.172
12.4628 1.208
12.4724 1.193
12.4820 1.411
12.4916 1.229
12.5013 1.328
12.5109 1.266
12.5205 1.344
12.5301 1.260
12.5397 1.115
12.5493 1.115
12.5590 1.333
12.5686 1.229
12.5782 1.240
12.5878 1.292
12.5974 1.135
12.6070 1.198
12.6167 1.115
12.6263 1.224
12.6359 1.193
12.6455 1.161
12.6551 1.229
12.6647 1.224
12.6744 1.328
12.6840 1.198
12.6936 1.156
12.7032 1.219
12.7128 1.203
12.7224 1.141
12.7321 1.203
12.7417 1.130
12.7513 1.240
12.7609 1.156
12.7705 1.385
12.7801 1.135
12.7898 1.234
12.7994 1.208
12.8090 1.266
12.8186 1.094
12.8282 1.240
12.8378 1.057
12.8475 1.120
12.8571 1.057
12.8667 1.318
12.8763 1.109
12.8859 1.161
12.8955 1.323
12.9052 1.172
12.9148 1.177
12.9244 1.203
12.9340 1.099
12.9436 1.245
12.9532 1.286
12.9629 1.125
12.9725 1.219
12.9821 1.130
12.9917 1.099
13.0013 1.135
13.0110 1.198
13.0206 1.193
13.0302 1.135
13.0398 1.151
13.0494 1.167
13.0590 1.047
13.0687 1.078
13.0783 0.984
13.0879 1.120
13.0975 1.224
13.1071 1.104
13.1167 1.135
13.1264 1.125
13.1360 1.120
13.1456 1.073
13.1552 1.245
13.1648 1.167
13.1744 1.224
13.1841 1.099
13.1937 1.281
13.2033 1.031
13.2129 1.146
13.2225 1.089
13.2321 1.208
13.2418 1.000
13.2514 1.094
13.2610 1.219
13.2706 1.135
13.2802 1.115
13.2898 1.104
13.2995 1.234
13.3091 0.984
13.3187 1.141
13.3283 1.141
13.3379 1.120
13.3475 1.063
13.3572 1.057
13.3668 1.193
13.3764 1.203
13.3860 1.052
13.3956 1.068
13.4052 1.219
13.4149 1.135
13.4245 1.130
13.4341 1.057
13.4437 1.203
13.4533 1.177
13.4630 1.234
13.4726 1.161
13.4822 1.203
13.4918 1.146
13.5014 1.219
13.5110 0.974
13.5207 1.141
13.5303 1.130
13.5399 1.047
13.5495 1.302
13.5591 1.010
13.5687 1.214
13.5784 1.214
13.5880 1.057
13.5976 1.286
13.6072 1.120
13.6168 1.146
13.6264 1.141
13.6361 1.208
13.6457 1.130
13.6553 1.016
13.6649 1.115
13.6745 1.094
13.6841 1.026
13.6938 1.156
13.7034 1.203
13.7130 1.005
13.7226 1.297
13.7322 1.042
13.7418 1.036
13.7515 1.021
13.7611 1.089
13.7707 1.063
13.7803 1.198
13.7899 1.000
13.7995 1.036
13.8092 1.047
13.8188 1.021
13.8284 1.042
13.8380 1.005
13.8476 1.203
13.8572 1.068
13.8669 1.026
13.8765 0.932
13.8861 1.115
13.8957 1.057
13.9053 1.005
13.9149 0.880
13.9246 1.016
13.9342 1.005
13.9438 1.208
13.9534 1.125
13.9630 1.089
13.9727 1.104
13.9823 1.078
13.9919 1.125
14.0015 1.026
14.0111 1.021
14.0207 1.026
14.0304 1.010
14.0400 1.042
14.0496 1.042
14.0592 1.240
14.0688 1.109
14.0784 1.063
14.0881 1.047
14.0977 0.984
14.1073 1.198
14.1169 1.109
14.1265 0.948
14.1361 1.010
14.1458 1.094
14.1554 1.083
14.1650 0.969
14.1746 0.984
14.1842 0.979
14.1938 1.063
14.2035 1.005
14.2131 1.010
14.2227 1.000
14.2323 1.047
14.2419 0.854
14.2515 1.172
14.2612 1.031
14.2708 1.042
14.2804 1.047
14.2900 1.078
14.2996 0.995
14.3092 1.031
14.3189 1.057
14.3285 1.089
14.3381 1.036
14.3477 1.036
14.3573 1.141
14.3669 1.109
14.3766 0.969
14.3862 1.120
14.3958 1.182
14.4054 0.984
14.4150 1.005
14.4246 1.109
14.4343 1.010
14.4439 0.948
14.4535 1.219
14.4631 1.031
14.4727 0.911
14.4824 0.990
14.4920 0.964
14.5016 1.052
14.5112 0.979
14.5208 1.078
14.5304 1.016
14.5401 0.901
14.5497 1.005
14.5593 0.995
14.5689 0.948
14.5785 0.979
14.5881 1.068
14.5978 0.917
14.6074 1.016
14.6170 0.953
14.6266 1.214
14.6362 0.870
14.6458 0.911
14.6555 0.927
14.6651 1.042
14.6747 0.984
14.6843 1.089
14.6939 1.010
14.7035 1.078
14.7132 0.875
14.7228 1.073
14.7324 0.906
14.7420 1.042
14.7516 0.943
14.7612 0.818
14.7709 1.026
14.7805 0.974
14.7901 0.854
14.7997 1.047
14.8093 0.932
14.8189 0.990
14.8286 0.849
14.8382 1.021
14.8478 1.021
14.8574 0.880
14.8670 1.010
14.8766 0.958
14.8863 0.979
14.8959 1.047
14.9055 0.974
14.9151 0.964
14.9247 1.026
14.9343 1.010
14.9440 0.885
14.9536 1.026
14.9632 0.984
14.9728 1.010
14.9824 1.026
14.9921 1.031
15.0017 1.047
15.0113 1.005
15.0209 0.938
15.0305 1.036
15.0401 1.063
15.0498 1.005
15.0594 1.057
15.0690 1.057
15.0786 1.021
15.0882 0.927
15.0978 0.896
15.1075 0.984
15.1171 0.927
15.1267 1.000
15.1363 0.964
15.1459 0.943
15.1555 0.943
15.1652 0.875
15.1748 0.932
15.1844 0.911
15.1940 0.911
15.2036 1.063
15.2132 1.063
15.2229 1.010
15.2325 0.911
15.2421 0.969
15.2517 0.979
15.2613 0.969
15.2709 1.005
15.2806 0.990
15.2902 0.953
15.2998 1.047
15.3094 0.979
15.3190 0.833
15.3286 0.896
15.3383 1.073
15.3479 0.974
15.3575 0.948
15.3671 1.000
15.3767 0.839
15.3863 0.859
15.3960 0.865
15.4056 0.995
15.4152 0.979
15.4248 0.839
15.4344 1.073
15.4440 1.078
15.4537 0.938
15.4633 1.047
15.4729 0.891
15.4825 0.896
15.4921 0.932
15.5018 0.859
15.5114 0.995
15.5210 0.943
15.5306 0.813
15.5402 0.823
15.5498 0.927
15.5595 0.885
15.5691 0.943
15.5787 0.922
15.5883 0.896
15.5979 0.995
15.6075 0.891
15.6172 0.917
15.6268 0.990
15.6364 0.995
15.6460 0.818
15.6556 0.995
15.6652 0.964
15.6749 0.917
15.6845 0.938
15.6941 0.755
15.7037 0.995
15.7133 1.073
15.7229 0.828
15.7326 0.901
15.7422 0.833
15.7518 0.896
15.7614 1.031
15.7710 0.922
15.7806 0.823
15.7903 0.938
15.7999 0.943
15.8095 0.896
15.8191 1.026
15.8287 0.875
15.8383 0.865
15.8480 0.943
15.8576 0.995
15.8672 0.828
15.8768 0.849
15.8864 0.823
15.8960 0.870
15.9057 0.917
15.9153 0.823
15.9249 1.000
15.9345 0.849
15.9441 0.896
15.9538 0.859
15.9634 0.807
15.9730 0.797
15.9826 0.896
15.9922 0.896
16.0018 1.000
16.0115 0.901
16.0211 0.818
16.0307 0.927
16.0403 1.005
16.0499 0.708
16.0595 0.880
16.0692 0.833
16.0788 0.927
16.0884 0.911
16.0980 0.849
16.1076 0.802
16.1172 0.922
16.1269 0.740
16.1365 0.828
16.1461 0.870
16.1557 0.865
16.1653 0.755
16.1749 0.896
16.1846 0.901
16.1942 0.875
16.2038 0.880
16.2134 0.885
16.2230 0.839
16.2326 0.766
16.2423 0.901
16.2519 0.953
16.2615 0.839
16.2711 0.661
16.2807 0.807
16.2903 0.938
16.3000 0.833
16.3096 0.740
16.3192 0.786
16.3288 0.818
16.3384 0.849
16.3480 0.792
16.3577 0.901
16.3673 0.724
16.3769 0.828
16.3865 0.807
16.3961 0.870
16.4057 0.802
16.4154 0.870
16.4250 0.771
16.4346 0.865
16.4442 0.844
16.4538 0.802
16.4635 0.938
16.4731 0.760
16.4827 0.839
16.4923 0.802
16.5019 0.833
16.5115 0.828
16.5212 0.849
16.5308 0.854
16.5404 0.828
16.5500 0.802
16.5596 0.922
16.5692 0.849
16.5789 0.875
16.5885 0.927
16.5981 0.818
16.6077 0.813
16.6173 0.813
16.6269 0.781
16.6366 0.938
16.6462 0.766
16.6558 0.818
16.6654 0.833
16.6750 0.891
16.6846 0.859
16.6943 0.797
16.7039 0.828
16.7135 0.740
16.7231 0.734
16.7327 0.797
16.7423 0.734
16.7520 0.891
16.7616 0.734
16.7712 0.818
16.7808 0.771
16.7904 0.792
16.8000 0.865
16.8097 0.828
16.8193 0.833
16.8289 0.839
16.8385 0.833
16.8481 0.828
16.8577 0.750
16.8674 0.958
16.8770 0.880
16.8866 0.771
16.8962 0.750
16.9058 0.792
16.9154 0.828
16.9251 0.833
16.9347 0.823
16.9443 0.849
16.9539 0.760
16.9635 0.849
16.9732 0.839
16.9828 0.833
16.9924 0.839
17.0020 0.807
17.0116 0.766
17.0212 0.818
17.0309 0.839
17.0405 0.776
17.0501 0.927
17.0597 0.901
17.0693 0.719
17.0789 0.656
17.0886 0.911
17.0982 0.813
17.1078 0.760
17.1174 0.823
17.1270 0.771
17.1366 0.854
17.1463 0.870
17.1559 0.766
17.1655 0.875
17.1751 0.901
17.1847 0.734
17.1943 0.932
17.2040 0.833
17.2136 0.849
17.2232 0.859
17.2328 1.016
17.2424 0.844
17.2520 0.750
17.2617 0.880
17.2713 0.708
17.2809 0.917
17.2905 0.797
17.3001 0.854
17.3097 0.740
17.3194 0.833
17.3290 0.844
17.3386 0.813
17.3482 0.781
17.3578 0.740
17.3674 0.818
17.3771 0.750
17.3867 0.797
17.3963 0.880
17.4059 0.854
17.4155 0.922
17.4251 0.828
17.4348 0.750
17.4444 0.719
17.4540 0.797
17.4636 0.625
17.4732 0.880
17.4829 0.844
17.4925 0.781
17.5021 0.802
17.5117 0.766
17.5213 0.766
17.5309 0.865
17.5406 0.760
17.5502 0.792
17.5598 0.813
17.5694 0.854
17.5790 0.833
17.5886 0.698
17.5983 0.875
17.6079 0.792
17.6175 0.771
17.6271 0.776
17.6367 0.755
17.6463 0.786
17.6560 0.771
17.6656 0.740
17.6752 0.891
17.6848 0.786
17.6944 0.766
17.7040 0.792
17.7137 0.813
17.7233 0.776
17.7329 0.818
17.7425 0.698
17.7521 0.823
17.7617 0.734
17.7714 0.854
17.7810 0.766
17.7906 0.849
17.8002 0.776
17.8098 0.875
17.8194 0.729
17.8291 0.828
17.8387 0.708
17.8483 0.854
17.8579 0.792
17.8675 0.828
17.8771 0.745
17.8868 0.667
17.8964 0.708
17.9060 0.750
17.9156 0.917
17.9252 0.714
17.9348 0.813
17.9445 0.833
17.9541 0.875
17.9637 0.766
17.9733 0.708
17.9829 0.818
17.9926 0.818
18.0022 0.667
18.0118 0.766
18.0214 0.734
18.0310 0.771
18.0406 0.865
18.0503 0.609
18.0599 0.792
18.0695 0.703
