'Id: "" Comment: "" Operator: "Lab Manager" Anode: "Cu" Scantype: "Coupled TwoTheta/Theta" TimePerStep: "192" 
5.0000 6.615
5.0096 6.589
5.0192 6.896
5.0289 6.594
5.0385 6.417
5.0481 6.438
5.0577 6.526
5.0673 6.615
5.0769 6.318
5.0866 6.536
5.0962 6.391
5.1058 5.885
5.1154 6.333
5.1250 6.500
5.1346 6.438
5.1443 6.391
5.1539 6.281
5.1635 6.042
5.1731 6.339
5.1827 5.984
5.1923 6.568
5.2020 6.094
5.2116 5.984
5.2212 6.026
5.2308 6.276
5.2404 6.229
5.2500 5.849
5.2597 6.068
5.2693 5.969
5.2789 6.010
5.2885 5.943
5.2981 5.859
5.3077 5.979
5.3174 5.818
5.3270 6.036
5.3366 5.760
5.3462 5.740
5.3558 6.130
5.3654 5.964
5.3751 5.776
5.3847 6.016
5.3943 5.969
5.4039 5.844
5.4135 5.786
5.4231 5.714
5.4328 5.781
5.4424 5.922
5.4520 5.849
5.4616 5.896
5.4712 5.589
5.4808 5.708
5.4905 5.698
5.5001 5.792
5.5097 6.047
5.5193 5.453
5.5289 5.797
5.5386 5.724
5.5482 5.797
5.5578 5.661
5.5674 5.766
5.5770 5.474
5.5866 5.469
5.5963 5.656
5.6059 5.417
5.6155 5.448
5.6251 5.542
5.6347 5.865
5.6443 5.474
5.6540 5.448
5.6636 5.719
5.6732 5.599
5.6828 5.151
5.6924 5.474
5.7020 5.589
5.7117 5.323
5.7213 5.297
5.7309 5.641
5.7405 5.703
5.7501 5.323
5.7597 5.708
5.7694 5.313
5.7790 5.677
5.7886 5.443
5.7982 5.224
5.8078 5.208
5.8174 5.333
5.8271 5.234
5.8367 5.302
5.8463 5.328
5.8559 5.422
5.8655 5.380
5.8751 5.010
5.8848 5.214
5.8944 5.161
5.9040 5.047
5.9136 5.406
5.9232 5.286
5.9328 5.167
5.9425 5.255
5.9521 5.188
5.9617 5.286
5.9713 5.255
5.9809 4.906
5.9905 5.208
6.0002 5.578
6.0098 5.250
6.0194 5.135
6.0290 5.125
6.0386 4.969
6.0483 5.250
6.0579 4.839
6.0675 5.151
6.0771 5.005
6.0867 5.094
6.0963 4.849
6.1060 4.828
6.1156 5.089
6.1252 5.042
6.1348 5.005
6.1444 5.151
6.1540 5.203
6.1637 4.979
6.1733 4.807
6.1829 4.813
6.1925 4.979
6.2021 5.010
6.2117 4.734
6.2214 4.922
6.2310 4.651
6.2406 4.969
6.2502 4.974
6.2598 4.797
6.2694 5.135
6.2791 4.870
6.2887 4.833
6.2983 4.953
6.3079 4.844
6.3175 5.005
6.3271 4.948
6.3368 5.214
6.3464 4.802
6.3560 4.698
6.3656 4.906
6.3752 4.953
6.3848 4.875
6.3945 5.146
6.4041 4.984
6.4137 4.635
6.4233 4.724
6.4329 4.828
6.4425 4.589
6.4522 4.656
6.4618 4.401
6.4714 4.677
6.4810 4.760
6.4906 4.729
6.5003 4.766
6.5099 4.474
6.5195 4.672
6.5291 4.724
6.5387 4.813
6.5483 4.380
6.5580 4.484
6.5676 4.896
6.5772 4.828
6.5868 4.859
6.5964 4.547
6.6060 4.505
6.6157 4.995
6.6253 4.635
6.6349 4.286
6.6445 4.625
6.6541 4.693
6.6637 4.427
6.6734 4.490
6.6830 4.380
6.6926 4.271
6.7022 4.208
6.7118 4.432
6.7214 4.339
6.7311 4.427
6.7407 4.318
6.7503 4.417
6.7599 4.365
6.7695 4.453
6.7791 4.443
6.7888 4.500
6.7984 4.635
6.8080 4.510
6.8176 4.323
6.8272 4.406
6.8368 4.531
6.8465 4.146
6.8561 4.104
6.8657 4.406
6.8753 4.521
6.8849 4.484
6.8945 4.146
6.9042 4.089
6.9138 4.609
6.9234 4.198
6.9330 4.318
6.9426 4.234
6.9522 4.156
6.9619 4.438
6.9715 4.047
6.9811 4.323
6.9907 4.036
7.0003 4.240
7.0100 4.052
7.0196 4.036
7.0292 4.208
7.0388 4.135
7.0484 3.990
7.0580 4.047
7.0677 4.063
7.0773 3.875
7.0869 4.141
7.0965 3.885
7.1061 3.995
7.1157 4.031
7.1254 4.130
7.1350 3.906
7.1446 4.234
7.1542 4.203
7.1638 4.130
7.1734 4.047
7.1831 4.042
7.1927 4.042
7.2023 3.776
7.2119 4.073
7.2215 4.099
7.2311 4.104
7.2408 3.708
7.2504 3.969
7.2600 3.906
7.2696 4.031
7.2792 3.958
7.2888 3.870
7.2985 3.547
7.3081 3.677
7.3177 3.885
7.3273 3.833
7.3369 3.859
7.3465 3.828
7.3562 3.948
7.3658 4.063
7.3754 3.724
7.3850 4.115
7.3946 3.703
7.4042 3.807
7.4139 3.698
7.4235 3.703
7.4331 3.813
7.4427 3.865
7.4523 4.031
7.4619 3.885
7.4716 3.563
7.4812 3.885
7.4908 3.833
7.5004 3.792
7.5100 3.844
7.5197 3.849
7.5293 3.740
7.5389 3.854
7.5485 3.599
7.5581 3.693
7.5677 3.688
7.5774 3.755
7.5870 3.396
7.5966 3.661
7.6062 3.542
7.6158 3.589
7.6254 3.651
7.6351 3.526
7.6447 3.786
7.6543 3.385
7.6639 3.724
7.6735 3.620
7.6831 3.359
7.6928 3.661
7.7024 3.438
7.7120 3.375
7.7216 3.323
7.7312 3.583
7.7408 3.578
7.7505 3.547
7.7601 3.521
7.7697 3.578
7.7793 3.495
7.7889 3.422
7.7985 3.339
7.8082 3.557
7.8178 3.552
7.8274 3.276
7.8370 3.297
7.8466 3.380
7.8562 3.443
7.8659 3.198
7.8755 3.568
7.8851 3.297
7.8947 3.198
7.9043 3.297
7.9139 3.255
7.9236 3.349
7.9332 3.281
7.9428 3.479
7.9524 3.411
7.9620 3.609
7.9716 3.427
7.9813 3.172
7.9909 3.594
8.0005 3.219
8.0101 3.224
8.0197 3.094
8.0294 3.318
8.0390 3.396
8.0486 3.182
8.0582 3.354
8.0678 3.271
8.0774 3.448
8.0871 3.260
8.0967 3.240
8.1063 3.344
8.1159 3.156
8.1255 3.141
8.1351 3.615
8.1448 3.224
8.1544 3.339
8.1640 3.214
8.1736 3.094
8.1832 3.156
8.1928 2.938
8.2025 3.057
8.2121 2.896
8.2217 3.078
8.2313 3.182
8.2409 3.005
8.2505 2.958
8.2602 2.953
8.2698 3.063
8.2794 3.125
8.2890 2.964
8.2986 3.130
8.3082 3.099
8.3179 2.927
8.3275 3.005
8.3371 2.974
8.3467 3.234
8.3563 2.896
8.3659 2.953
8.3756 2.964
8.3852 2.922
8.3948 2.714
8.4044 2.964
8.4140 3.031
8.4236 2.688
8.4333 2.990
8.4429 2.948
8.4525 3.182
8.4621 2.964
8.4717 3.026
8.4813 2.974
8.4910 3.021
8.5006 2.745
8.5102 3.042
8.5198 3.042
8.5294 2.635
8.5391 2.984
8.5487 3.125
8.5583 2.844
8.5679 2.802
8.5775 2.766
8.5871 2.646
8.5968 2.813
8.6064 2.828
8.6160 2.740
8.6256 2.953
8.6352 2.693
8.6448 2.766
8.6545 2.760
8.6641 2.974
8.6737 2.552
8.6833 2.729
8.6929 2.625
8.7025 2.870
8.7122 2.573
8.7218 2.703
8.7314 2.771
8.7410 2.661
8.7506 2.849
8.7602 2.750
8.7699 2.698
8.7795 2.578
8.7891 2.536
8.7987 2.828
8.8083 2.661
8.8179 2.651
8.8276 2.745
8.8372 2.661
8.8468 2.740
8.8564 2.448
8.8660 2.490
8.8756 2.536
8.8853 2.547
8.8949 2.583
8.9045 2.427
8.9141 2.620
8.9237 2.682
8.9333 2.625
8.9430 2.682
8.9526 2.698
8.9622 2.609
8.9718 2.729
8.9814 2.448
8.9911 2.536
9.0007 2.432
9.0103 2.635
9.0199 2.453
9.0295 2.536
9.0391 2.406
9.0488 2.365
9.0584 2.521
9.0680 2.333
9.0776 2.354
9.0872 2.495
9.0968 2.568
9.1065 2.411
9.1161 2.484
9.1257 2.307
9.1353 2.417
9.1449 2.557
9.1545 2.380
9.1642 2.385
9.1738 2.547
9.1834 2.656
9.1930 2.318
9.2026 2.318
9.2122 2.177
9.2219 2.406
9.2315 2.370
9.2411 2.427
9.2507 2.484
9.2603 2.344
9.2699 2.406
9.2796 2.401
9.2892 2.313
9.2988 2.120
9.3084 2.089
9.3180 2.349
9.3276 2.339
9.3373 2.078
9.3469 2.370
9.3565 2.521
9.3661 2.297
9.3757 2.427
9.3853 2.203
9.3950 2.516
9.4046 2.193
9.4142 2.188
9.4238 2.208
9.4334 2.286
9.4430 2.240
9.4527 2.302
9.4623 2.193
9.4719 2.229
9.4815 2.250
9.4911 2.323
9.5008 2.214
9.5104 2.219
9.5200 2.302
9.5296 2.255
9.5392 2.130
9.5488 2.156
9.5585 2.130
9.5681 2.177
9.5777 2.036
9.5873 2.354
9.5969 2.089
9.6065 2.125
9.6162 1.870
9.6258 2.141
9.6354 2.005
9.6450 2.302
9.6546 2.057
9.6642 2.193
9.6739 1.880
9.6835 2.156
9.6931 2.203
9.7027 2.167
9.7123 2.182
9.7219 2.042
9.7316 2.042
9.7412 2.089
9.7508 1.979
9.7604 2.188
9.7700 2.099
9.7796 2.063
9.7893 1.943
9.7989 1.958
9.8085 1.984
9.8181 1.875
9.8277 1.969
9.8373 2.130
9.8470 2.000
9.8566 2.031
9.8662 2.010
9.8758 2.297
9.8854 1.927
9.8950 2.146
9.9047 1.964
9.9143 2.047
9.9239 1.969
9.9335 1.964
9.9431 1.958
9.9527 2.078
9.9624 1.885
9.9720 2.063
9.9816 1.964
9.9912 2.068
10.0008 2.094
10.0105 1.901
10.0201 2.031
10.0297 2.063
10.0393 2.047
10.0489 1.938
10.0585 2.005
10.0682 1.990
10.0778 1.875
10.0874 1.734
10.0970 2.026
10.1066 2.010
10.1162 2.188
10.1259 2.010
10.1355 1.938
10.1451 1.964
10.1547 2.109
10.1643 2.036
10.1739 2.026
10.1836 1.958
10.1932 1.984
10.2028 2.042
10.2124 1.813
10.2220 1.974
10.2316 1.911
10.2413 1.927
10.2509 1.880
10.2605 1.958
10.2701 1.828
10.2797 1.974
10.2893 2.031
10.2990 2.021
10.3086 1.792
10.3182 1.917
10.3278 1.906
10.3374 1.948
10.3470 1.745
10.3567 2.141
10.3663 1.750
10.3759 1.870
10.3855 1.958
10.3951 2.005
10.4047 2.036
10.4144 1.927
10.4240 2.016
10.4336 1.854
10.4432 2.005
10.4528 1.948
10.4624 1.828
10.4721 1.865
10.4817 1.786
10.4913 1.984
10.5009 1.760
10.5105 2.000
10.5202 1.865
10.5298 1.911
10.5394 1.906
10.5490 1.964
10.5586 1.948
10.5682 1.901
10.5779 1.901
10.5875 1.844
10.5971 1.839
10.6067 1.953
10.6163 1.849
10.6259 1.990
10.6356 1.984
10.6452 1.927
10.6548 1.984
10.6644 1.766
10.6740 1.828
10.6836 1.865
10.6933 1.865
10.7029 1.818
10.7125 1.891
10.7221 1.859
10.7317 1.797
10.7413 1.708
10.7510 2.073
10.7606 1.927
10.7702 1.802
10.7798 1.969
10.7894 1.995
10.7990 1.828
10.8087 2.021
10.8183 1.885
10.8279 2.083
10.8375 1.745
10.8471 1.849
10.8567 1.880
10.8664 1.719
10.8760 1.953
10.8856 1.870
10.8952 1.849
10.9048 2.000
10.9144 1.849
10.9241 1.943
10.9337 1.938
10.9433 1.833
10.9529 1.807
10.9625 1.813
10.9721 1.938
10.9818 1.995
10.9914 1.964
11.0010 1.979
11.0106 1.865
11.0202 1.698
11.0299 1.828
11.0395 1.615
11.0491 1.979
11.0587 1.807
11.0683 1.854
11.0779 1.740
11.0876 1.661
11.0972 1.807
11.1068 1.734
11.1164 1.875
11.1260 1.755
11.1356 1.745
11.1453 1.896
11.1549 1.922
11.1645 1.750
11.1741 1.625
11.1837 1.792
11.1933 1.672
11.2030 1.885
11.2126 1.953
11.2222 1.771
11.2318 1.865
11.2414 1.734
11.2510 1.703
11.2607 1.839
11.2703 1.594
11.2799 1.708
11.2895 1.849
11.2991 1.745
11.3087 1.797
11.3184 1.813
11.3280 1.911
11.3376 1.771
11.3472 1.922
11.3568 1.776
11.3664 1.844
11.3761 1.875
11.3857 1.943
11.3953 1.938
11.4049 1.906
11.4145 1.745
11.4241 1.880
11.4338 1.677
11.4434 1.766
11.4530 1.823
11.4626 1.818
11.4722 1.693
11.4819 1.885
11.4915 1.818
11.5011 1.750
11.5107 2.005
11.5203 1.802
11.5299 1.891
11.5396 1.865
11.5492 1.672
11.5588 1.833
11.5684 1.792
11.5780 1.781
11.5876 1.589
11.5973 1.896
11.6069 1.776
11.6165 1.823
11.6261 1.771
11.6357 1.724
11.6453 1.740
11.6550 1.771
11.6646 1.802
11.6742 1.589
11.6838 1.828
11.6934 1.729
11.7030 1.833
11.7127 1.776
11.7223 1.958
11.7319 1.583
11.7415 1.901
11.7511 1.760
11.7607 1.833
11.7704 1.766
11.7800 1.615
11.7896 1.948
11.7992 1.802
11.8088 1.854
11.8184 1.776
11.8281 1.656
11.8377 1.745
11.8473 1.766
11.8569 1.708
11.8665 1.521
11.8761 1.891
11.8858 1.724
11.8954 1.891
11.9050 1.766
11.9146 1.792
11.9242 1.922
11.9338 1.854
11.9435 1.786
11.9531 1.635
11.9627 1.615
11.9723 1.875
11.9819 1.703
11.9916 1.750
12.0012 1.776
12.0108 1.641
12.0204 1.635
12.0300 1.693
12.0396 1.859
12.0493 1.542
12.0589 1.526
12.0685 1.807
12.0781 1.880
12.0877 1.656
12.0973 1.755
12.1070 1.792
12.1166 1.807
12.1262 1.740
12.1358 1.693
12.1454 1.755
12.1550 1.573
12.1647 1.661
12.1743 1.682
12.1839 1.786
12.1935 1.708
12.2031 1.583
12.2127 1.646
12.2224 1.740
12.2320 1.667
12.2416 1.719
12.2512 1.771
12.2608 1.833
12.2704 1.411
12.2801 1.922
12.2897 1.740
12.2993 1.771
12.3089 1.698
12.3185 1.839
12.3281 1.651
12.3378 1.651
12.3474 1.724
12.3570 1.651
12.3666 1.729
12.3762 1.708
12.3858 1.641
12.3955 1.630
12.4051 1.672
12.4147 1.771
12.4243 1.818
12.4339 1.771
12.4435 1.641
12.4532 1.802
12.4628 1.740
12.4724 1.938
12.4820 1.859
12.4916 1.714
12.5013 1.609
12.5109 1.651
12.5205 1.828
12.5301 1.698
12.5397 1.661
12.5493 1.922
12.5590 1.557
12.5686 1.734
12.5782 1.734
12.5878 1.589
12.5974 1.688
12.6070 1.708
12.6167 1.635
12.6263 1.656
12.6359 1.698
12.6455 1.625
12.6551 1.708
12.6647 1.766
12.6744 1.656
12.6840 1.682
12.6936 1.917
12.7032 1.552
12.7128 1.906
12.7224 1.766
12.7321 1.656
12.7417 1.734
12.7513 1.729
12.7609 1.688
12.7705 1.875
12.7801 1.688
12.7898 1.630
12.7994 1.682
12.8090 1.729
12.8186 1.708
12.8282 1.698
12.8378 1.693
12.8475 1.547
12.8571 1.745
12.8667 1.484
12.8763 1.557
12.8859 1.521
12.8955 1.766
12.9052 1.724
12.9148 1.630
12.9244 1.693
12.9340 1.771
12.9436 1.714
12.9532 1.641
12.9629 1.672
12.9725 1.682
12.9821 1.516
12.9917 1.714
13.0013 1.740
13.0110 1.609
13.0206 1.651
13.0302 1.760
13.0398 1.734
13.0494 1.495
13.0590 1.771
13.0687 1.568
13.0783 1.526
13.0879 1.646
13.0975 1.688
13.1071 1.578
13.1167 1.734
13.1264 1.714
13.1360 1.776
13.1456 1.682
13.1552 1.630
13.1648 1.740
13.1744 1.656
13.1841 1.693
13.1937 1.828
13.2033 1.458
13.2129 1.615
13.2225 1.750
13.2321 1.651
13.2418 1.557
13.2514 1.714
13.2610 1.510
13.2706 1.641
13.2802 1.594
13.2898 1.807
13.2995 1.672
13.3091 1.661
13.3187 1.557
13.3283 1.505
13.3379 1.672
13.3475 1.786
13.3572 1.625
13.3668 1.651
13.3764 1.656
13.3860 1.589
13.3956 1.672
13.4052 1.688
13.4149 1.495
13.4245 1.729
13.4341 1.734
13.4437 1.583
13.4533 1.661
13.4630 1.474
13.4726 1.625
13.4822 1.719
13.4918 1.656
13.5014 1.661
13.5110 1.708
13.5207 1.615
13.5303 1.682
13.5399 1.734
13.5495 1.396
13.5591 1.635
13.5687 1.766
13.5784 1.526
13.5880 1.807
13.5976 1.667
13.6072 1.766
13.6168 1.625
13.6264 1.552
13.6361 1.677
13.6457 1.708
13.6553 1.688
13.6649 1.474
13.6745 1.693
13.6841 1.583
13.6938 1.750
13.7034 1.828
13.7130 1.656
13.7226 1.677
13.7322 1.594
13.7418 1.615
13.7515 1.563
13.7611 1.646
13.7707 1.740
13.7803 1.521
13.7899 1.802
13.7995 1.630
13.8092 1.729
13.8188 1.698
13.8284 1.849
13.8380 1.708
13.8476 1.682
13.8572 1.641
13.8669 1.781
13.8765 1.563
13.8861 1.708
13.8957 1.760
13.9053 1.552
13.9149 1.740
13.9246 1.677
13.9342 1.661
13.9438 1.667
13.9534 1.688
13.9630 1.698
13.9727 1.667
13.9823 1.578
13.9919 1.698
14.0015 1.599
14.0111 1.516
14.0207 1.563
14.0304 1.542
14.0400 1.729
14.0496 1.672
14.0592 1.630
14.0688 1.708
14.0784 1.661
14.0881 1.531
14.0977 1.719
14.1073 1.531
14.1169 1.672
14.1265 1.630
14.1361 1.661
14.1458 1.771
14.1554 1.875
14.1650 1.495
14.1746 1.630
14.1842 1.656
14.1938 1.698
14.2035 1.589
14.2131 1.672
14.2227 1.615
14.2323 1.635
14.2419 1.656
14.2515 1.740
14.2612 1.573
14.2708 1.672
14.2804 1.755
14.2900 1.792
14.2996 1.620
14.3092 1.521
14.3189 1.708
14.3285 1.656
14.3381 1.599
14.3477 1.609
14.3573 1.677
14.3669 1.625
14.3766 1.563
14.3862 1.573
14.3958 1.667
14.4054 1.656
14.4150 1.740
14.4246 1.531
14.4343 1.750
14.4439 1.688
14.4535 1.589
14.4631 1.703
14.4727 1.583
14.4824 1.760
14.4920 1.714
14.5016 1.625
14.5112 1.536
14.5208 1.719
14.5304 1.682
14.5401 1.578
14.5497 1.729
14.5593 1.693
14.5689 1.740
14.5785 1.578
14.5881 1.594
14.5978 1.771
14.6074 1.693
14.6170 1.693
14.6266 1.745
14.6362 1.828
14.6458 1.677
14.6555 1.807
14.6651 1.672
14.6747 1.625
14.6843 1.906
14.6939 1.583
14.7035 1.672
14.7132 1.604
14.7228 1.573
14.7324 1.734
14.7420 1.573
14.7516 1.667
14.7612 1.688
14.7709 1.693
14.7805 1.734
14.7901 1.578
14.7997 1.766
14.8093 1.760
14.8189 1.677
14.8286 1.703
14.8382 1.615
14.8478 1.729
14.8574 1.630
14.8670 1.859
14.8766 1.557
14.8863 1.760
14.8959 1.682
14.9055 1.724
14.9151 1.688
14.9247 1.719
14.9343 1.641
14.9440 1.594
14.9536 1.630
14.9632 1.734
14.9728 1.500
14.9824 1.563
14.9921 1.510
15.0017 1.505
15.0113 1.568
15.0209 1.615
15.0305 1.807
15.0401 1.828
15.0498 1.708
15.0594 1.766
15.0690 1.708
15.0786 1.677
15.0882 1.901
15.0978 1.583
15.1075 1.807
15.1171 1.625
15.1267 1.661
15.1363 1.714
15.1459 1.536
15.1555 1.698
15.1652 1.620
15.1748 1.849
15.1844 1.682
15.1940 1.646
15.2036 1.818
15.2132 1.724
15.2229 1.786
15.2325 1.589
15.2421 1.750
15.2517 1.651
15.2613 1.714
15.2709 1.594
15.2806 1.672
15.2902 1.641
15.2998 1.568
15.3094 1.781
15.3190 1.563
15.3286 1.656
15.3383 1.635
15.3479 1.578
15.3575 1.885
15.3671 1.646
15.3767 1.620
15.3863 1.656
15.3960 1.786
15.4056 1.849
15.4152 1.703
15.4248 1.844
15.4344 1.833
15.4440 1.708
15.4537 1.839
15.4633 1.630
15.4729 1.682
15.4825 1.599
15.4921 1.734
15.5018 1.807
15.5114 1.698
15.5210 1.802
15.5306 1.630
15.5402 1.880
15.5498 1.563
15.5595 1.792
15.5691 1.563
15.5787 1.714
15.5883 1.688
15.5979 1.797
15.6075 1.615
15.6172 1.729
15.6268 1.750
15.6364 1.604
15.6460 1.620
15.6556 1.740
15.6652 1.854
15.6749 1.760
15.6845 1.802
15.6941 1.750
15.7037 1.714
15.7133 1.792
15.7229 1.724
15.7326 1.719
15.7422 1.703
15.7518 1.729
15.7614 1.568
15.7710 1.719
15.7806 1.760
15.7903 1.667
15.7999 1.563
15.8095 1.740
15.8191 1.844
15.8287 1.646
15.8383 1.766
15.8480 1.760
15.8576 1.698
15.8672 1.651
15.8768 1.844
15.8864 1.760
15.8960 1.786
15.9057 1.760
15.9153 1.714
15.9249 1.578
15.9345 1.651
15.9441 1.792
15.9538 1.771
15.9634 1.792
15.9730 1.906
15.9826 1.625
15.9922 1.911
16.0018 1.656
16.0115 1.854
16.0211 1.714
16.0307 1.932
16.0403 1.646
16.0499 1.974
16.0595 1.896
16.0692 1.771
16.0788 1.745
16.0884 1.823
16.0980 1.776
16.1076 1.771
16.1172 1.797
16.1269 1.766
16.1365 1.693
16.1461 1.849
16.1557 1.880
16.1653 1.839
16.1749 1.661
16.1846 1.875
16.1942 1.797
16.2038 1.792
16.2134 1.625
16.2230 1.531
16.2326 1.729
16.2423 1.906
16.2519 1.750
16.2615 1.755
16.2711 1.990
16.2807 1.708
16.2903 1.865
16.3000 1.964
16.3096 1.693
16.3192 1.740
16.3288 1.953
16.3384 1.865
16.3480 1.698
16.3577 1.729
16.3673 1.917
16.3769 1.786
16.3865 1.630
16.3961 1.693
16.4057 1.635
16.4154 1.839
16.4250 1.599
16.4346 1.875
16.4442 1.953
16.4538 1.693
16.4635 1.677
16.4731 1.875
16.4827 1.865
16.4923 1.797
16.5019 1.786
16.5115 1.724
16.5212 1.844
16.5308 1.823
16.5404 1.755
16.5500 1.776
16.5596 1.891
16.5692 1.833
16.5789 1.901
16.5885 1.885
16.5981 1.823
16.6077 1.896
16.6173 1.911
16.6269 1.943
16.6366 1.990
16.6462 1.740
16.6558 1.672
16.6654 1.667
16.6750 1.792
16.6846 1.729
16.6943 1.771
16.7039 1.943
16.7135 1.854
16.7231 1.875
16.7327 1.964
16.7423 1.792
16.7520 1.870
16.7616 1.849
16.7712 1.802
16.7808 1.703
16.7904 1.974
16.8000 1.693
16.8097 2.005
16.8193 1.755
16.8289 2.063
16.8385 1.880
16.8481 1.865
16.8577 1.833
16.8674 1.667
16.8770 1.875
16.8866 1.901
16.8962 1.911
16.9058 1.818
16.9154 2.130
16.9251 1.891
16.9347 1.906
16.9443 2.099
16.9539 1.844
16.9635 1.875
16.9732 1.896
16.9828 1.938
16.9924 2.042
17.0020 1.875
17.0116 1.813
17.0212 1.823
17.0309 1.667
17.0405 1.802
17.0501 1.953
17.0597 1.844
17.0693 1.938
17.0789 1.854
17.0886 2.130
17.0982 1.818
17.1078 1.911
17.1174 2.031
17.1270 2.010
17.1366 1.734
17.1463 1.911
17.1559 2.000
17.1655 1.839
17.1751 1.885
17.1847 2.000
17.1943 1.979
17.2040 1.906
17.2136 2.057
17.2232 1.828
17.2328 1.932
17.2424 1.995
17.2520 1.958
17.2617 2.083
17.2713 2.005
17.2809 2.036
17.2905 2.104
17.3001 2.005
17.3097 1.854
17.3194 1.917
17.3290 1.969
17.3386 1.896
17.3482 1.745
17.3578 1.922
17.3674 2.167
17.3771 1.932
17.3867 2.234
17.3963 1.896
17.4059 1.958
17.4155 1.854
17.4251 2.104
17.4348 1.849
17.4444 2.052
17.4540 2.047
17.4636 1.844
17.4732 1.984
17.4829 2.057
17.4925 1.849
17.5021 2.198
17.5117 1.969
17.5213 1.714
17.5309 1.807
17.5406 2.161
17.5502 2.172
17.5598 2.120
17.5694 2.120
17.5790 1.943
17.5886 2.115
17.5983 2.042
17.6079 1.979
17.6175 2.083
17.6271 2.078
17.6367 2.089
17.6463 1.917
17.6560 2.203
17.6656 2.104
17.6752 2.047
17.6848 1.979
17.6944 1.875
17.7040 2.010
17.7137 1.870
17.7233 2.083
17.7329 1.943
17.7425 2.068
17.7521 2.120
17.7617 2.198
17.7714 1.953
17.7810 2.276
17.7906 2.182
17.8002 1.953
17.8098 2.078
17.8194 1.958
17.8291 2.240
17.8387 2.333
17.8483 2.109
17.8579 2.344
17.8675 2.125
17.8771 2.135
17.8868 2.161
17.8964 2.188
17.9060 2.219
17.9156 2.031
17.9252 2.135
17.9348 2.245
17.9445 2.130
17.9541 2.151
17.9637 2.151
17.9733 2.229
17.9829 2.125
17.9926 2.198
18.0022 2.104
18.0118 2.401
18.0214 2.260
18.0310 2.135
18.0406 2.177
18.0503 2.286
18.0599 2.068
18.0695 2.302
